#Download from https://www2.mpia-hd.mpg.de/home/henning/Dust_opacities/Opacities/RI/new_ri.html

#string ID
water ice (Henning & Stognienko 1996, A&A, 311, 291)

#nr. of wavelength #inc. angles #aspect ratio #density [kg/m^3] #sub.temp #delta #align
113 1 1 920 141 0 0

#wavelength #real refractive index #imaginary refractive index
1.00000e-07 1.25760e+00 7.86910e-02
1.05000e-07 1.26650e+00 7.98270e-02
1.25000e-07 1.20340e+00 8.24210e-02
1.40000e-07 1.28740e+00 2.47300e-01
1.55000e-07 1.46160e+00 1.52170e-01
1.75000e-07 1.42700e+00 3.61380e-05
2.00000e-07 1.33170e+00 1.72230e-08
2.20000e-07 1.34880e+00 1.37520e-08
2.50000e-07 1.33480e+00 7.84830e-09
3.00000e-07 1.32810e+00 5.59690e-09
3.17500e-07 1.32620e+00 4.79100e-09
3.50000e-07 1.32380e+00 3.67640e-09
4.00000e-07 1.32130e+00 2.62310e-09
4.50000e-07 1.31960e+00 2.06920e-09
5.30000e-07 1.31770e+00 1.59200e-09
5.70000e-07 1.31690e+00 2.49790e-09
6.50000e-07 1.31570e+00 8.66140e-09
7.30000e-07 1.31460e+00 3.06810e-08
8.50000e-07 1.31310e+00 1.75090e-07
1.00000e-06 1.31110e+00 1.14440e-06
1.15000e-06 1.30880e+00 3.16690e-06
1.30000e-06 1.30610e+00 1.29150e-05
1.35000e-06 1.30510e+00 1.13980e-05
1.40000e-06 1.30390e+00 1.38920e-05
1.53000e-06 1.30110e+00 7.88740e-04
1.65000e-06 1.29830e+00 1.54580e-04
1.80000e-06 1.29270e+00 4.59120e-05
1.90000e-06 1.28840e+00 2.17290e-04
2.00000e-06 1.28370e+00 5.64190e-04
2.15000e-06 1.27460e+00 4.51700e-04
2.27000e-06 1.26450e+00 1.80060e-04
2.35000e-06 1.25410e+00 7.97250e-04
2.50000e-06 1.24630e+00 4.98700e-04
2.75000e-06 1.03840e+00 2.30370e-02
2.90000e-06 1.02460e+00 3.31990e-01
3.10000e-06 1.46720e+00 4.84720e-01
3.35000e-06 1.58960e+00 9.60360e-03
3.50000e-06 1.44270e+00 1.96410e-03
3.75000e-06 1.41170e+00 2.05130e-03
4.00000e-06 1.37400e+00 4.96660e-03
4.52000e-06 1.36570e+00 1.92080e-02
4.80000e-06 1.35990e+00 5.52110e-03
5.00000e-06 1.34740e+00 1.66160e-03
5.30000e-06 1.33080e+00 1.20410e-03
5.60000e-06 1.29940e+00 9.10090e-03
5.90000e-06 1.29510e+00 5.88240e-02
6.75000e-06 1.35750e+00 3.49110e-02
7.55000e-06 1.33080e+00 1.93870e-02
8.25000e-06 1.30970e+00 5.79970e-03
8.70000e-06 1.28790e+00 2.15640e-03
9.00000e-06 1.27010e+00 6.67660e-04
9.30000e-06 1.24900e+00 2.67250e-04
9.75000e-06 1.20870e+00 7.62920e-04
1.00000e-05 1.17390e+00 2.20990e-03
1.05000e-05 1.07550e+00 5.47350e-02
1.10000e-05 1.02290e+00 2.03230e-01
1.14000e-05 1.05920e+00 3.27330e-01
1.20000e-05 1.18870e+00 4.46760e-01
1.27000e-05 1.35960e+00 4.72130e-01
1.35000e-05 1.49690e+00 4.08970e-01
1.50000e-05 1.57660e+00 2.54550e-01
1.65000e-05 1.55770e+00 1.76380e-01
1.80000e-05 1.54180e+00 1.54320e-01
1.90000e-05 1.55780e+00 1.47340e-01
2.00000e-05 1.56610e+00 1.07550e-01
2.10000e-05 1.54890e+00 8.17280e-02
2.30000e-05 1.52200e+00 5.64750e-02
2.50000e-05 1.49520e+00 3.48590e-02
2.65000e-05 1.47200e+00 2.35520e-02
2.75000e-05 1.45470e+00 1.42250e-02
2.95000e-05 1.39590e+00 2.21400e-03
3.15000e-05 1.32830e+00 3.27040e-02
3.31000e-05 1.28600e+00 7.63980e-02
3.45000e-05 1.26640e+00 1.26840e-01
3.60000e-05 1.25260e+00 1.72420e-01
3.70000e-05 1.24630e+00 2.10790e-01
3.85000e-05 1.24520e+00 2.64460e-01
4.00000e-05 1.25260e+00 3.28870e-01
4.20000e-05 1.28230e+00 4.14320e-01
4.33500e-05 1.32380e+00 4.82940e-01
4.55400e-05 1.45330e+00 5.55740e-01
5.00000e-05 1.66910e+00 4.69540e-01
6.00000e-05 1.73100e+00 3.39240e-01
7.00000e-05 1.83020e+00 2.98630e-01
8.50000e-05 1.85320e+00 9.37170e-02
1.00000e-04 1.82090e+00 5.32980e-02
1.06000e-04 1.76020e+00 8.19990e-03
1.10000e-04 1.74960e+00 5.51020e-02
1.15000e-04 1.77400e+00 2.34210e-02
1.20000e-04 1.72450e+00 1.03140e-02
1.27000e-04 1.73730e+00 6.97270e-02
1.33000e-04 1.75810e+00 1.82260e-02
1.41000e-04 1.71580e+00 9.66310e-03
1.45000e-04 1.68800e+00 5.20330e-03
1.50000e-04 1.66390e+00 5.01270e-02
1.55000e-04 1.68150e+00 7.77560e-02
2.00000e-04 1.77130e+00 3.80670e-02
2.50000e-04 1.73440e+00 1.79320e-02
3.50000e-04 1.73400e+00 9.03660e-03
4.50000e-04 1.72550e+00 6.90660e-03
5.00000e-04 1.72480e+00 6.17240e-03
6.00000e-04 1.72330e+00 5.32590e-03
8.00000e-04 1.72260e+00 4.05710e-03
1.00000e-03 1.72170e+00 3.24110e-03
1.30000e-03 1.72030e+00 2.56130e-03
1.50000e-03 1.72040e+00 2.25020e-03
2.00000e-03 1.70880e+00 1.65730e-03
2.60000e-03 1.71430e+00 1.26930e-03
3.00000e-03 1.72220e+00 1.10550e-03
5.70000e-03 1.72220e+00 6.17130e-04
9.60000e-03 1.72220e+00 4.47800e-04
3.00000e-02 1.72220e+00 2.41700e-04
1.00000e-01 1.72220e+00 4.50000e-05
